Resistance [\fW\n]	Temperature [K]
8.7e-05	2.58801
0.000707	2.80904
0.000569	3.04732
0.000606	3.26077
0.00027	3.55197
0.000366	3.77157
0.00045	3.99703
-6e-05	4.2346
9.7e-05	4.48596
-2.1e-05	4.74231
-9.9e-05	4.99421
0.000172	5.23422
0.000145	5.46183
-0.000137	5.6786
0.000796	5.88285
0.000136	6.16102
0.000224	6.4217
0.000107	6.66573
-3e-06	6.89099
-7.7e-05	7.10496
0.000276	7.30611
0.000317	7.55769
0.000174	8.07056
0.000349	8.2822
0.000176	8.48728
0.000293	8.69234
-1e-05	8.9345
9.7e-05	9.17251
0.000118	9.40899
-0.000152	9.64393
0.00035	9.87688
0.000124	10.1042
3e-06	10.3227
0.000238	10.5321
0.000332	10.733
4.2e-05	10.9664
0	11.1936
0.000615	11.4171
-0.000213	11.6382
0.000188	11.8584
0.00021	12.0836
5.2e-05	12.3141
-0.000183	12.5414
0.000212	12.7664
0.000236	12.9908
7e-05	13.2156
0.000287	13.4433
0.00047	13.6757
0.000139	13.9143
0.000211	14.1194
0.000231	14.3307
0.000107	14.5487
0.000257	14.7738
-5e-06	15.0062
5.3e-05	15.2456
0.000176	15.4917
0.000171	15.6931
0.000131	15.8987
0.000124	16.108
0.000158	16.3212
0.00041	16.538
0.0009	16.7583
0.003267	16.9823
0.040313	17.2097
0.044938	17.4408
0.048929	17.6757
0.05296	17.9138
0.055821	18.1554
0.05848	18.3999
0.060548	18.647
0.062438	18.8962
0.064063	19.1469
0.065559	19.3987
0.066764	19.651
0.067976	19.903
0.069331	20.1545
0.069993	20.4051
0.070991	20.6546
0.071648	20.9032
0.073527	21.1513
0.074059	21.3996
0.074606	21.6492
0.075057	21.9009
0.075608	22.1547
0.075908	22.4091
0.07634	22.6613
0.076529	22.9091
0.077109	23.1495
0.07709	23.3833
0.077332	23.6159
0.077685	23.8531
0.077885	24.097
0.078084	24.3445
0.078169	24.5656
0.078392	24.8053
0.078503	25.0466
0.078558	25.2865
0.07858	25.5235
0.0791	25.757
0.078988	25.9867
0.079094	26.213
0.079115	26.4367
0.079284	26.6574
0.0794	26.8763
0.079537	27.0932
0.079682	27.309
0.07999	27.5228
0.079815	27.7361
0.079734	27.948
0.079597	28.1588
0.079574	28.3685
0.079709	28.5775
0.07972	28.7845
0.079687	28.9913
0.079778	29.1971
0.079684	29.4016
0.079816	29.6051
0.079723	29.8075
0.079572	30.0087
0.079618	30.209
0.079461	30.4576
0.079907	30.7046
0.080581	30.95
0.080751	31.1934
0.080283	31.4354
0.079666	31.6761
0.079816	31.915
0.080193	32.152
0.080418	32.3876
0.080793	32.6219
0.0807	32.8544
0.080843	33.0861
0.080655	33.3158
0.081025	33.5445
0.08075	33.7714
0.081155	33.997
0.081154	34.2216
0.081204	34.4447
0.081054	34.6666
0.080353	34.8872
0.082279	35.1063
0.082169	35.3243
0.082242	35.5414
0.08214	35.7572
0.081988	35.972
0.080731	36.185
0.080996	36.3969
0.080793	36.6086
0.080621	36.8183
0.081033	37.0271
0.081063	37.235
0.081042	37.4415
0.081013	37.6472
0.080886	37.8521
0.080222	38.0554
0.080151	38.2584
0.07975	38.4601
0.079864	38.6602
0.080557	38.8996
0.081145	39.1377
0.080926	39.3745
0.081235	39.6097
0.081297	39.8434
0.080879	40.076
0.080873	40.3073
0.080612	40.5374
0.080693	40.7662
0.080556	40.9942
0.08036	41.2206
0.080986	41.4465
0.080595	41.671
0.080633	41.8946
0.080687	42.1167
0.081529	42.3377
0.0815	42.5582
0.081297	42.7772
0.080969	42.9951
0.080881	43.2126
0.081501	43.429
0.080966	43.6441
0.081251	43.8589
0.081803	44.0721
0.081941	44.2853
0.081352	44.4972
0.081469	44.7083
0.083484	44.9183
0.083625	45.1282
0.081476	45.3369
0.082386	45.5446
0.083008	45.7522
0.082756	45.9589
0.082752	46.1645
0.082134	46.3698
0.082007	46.5742
0.081917	46.7785
0.081826	46.9814
0.081478	47.1837
0.08198	47.3857
0.081826	47.5868
0.082465	47.7876
0.084546	47.9877
0.085327	48.2205
0.085741	48.4523
0.085208	48.683
0.082838	48.9135
0.083373	49.1426
0.085885	49.3715
0.085835	49.5994
0.083949	49.8263
0.080629	50.3436
0.081581	50.856
0.082312	51.3655
0.083827	51.8712
0.08159	52.3726
0.080125	52.9025
0.082126	53.4284
0.084033	53.9507
0.092073	54.4696
0.086368	54.985
0.085116	55.4971
0.083674	56.0059
0.081255	56.5111
0.080328	57.0138
0.082412	57.5432
0.084221	58.069
0.082351	58.5917
0.083342	59.1116
0.082145	59.6287
0.083993	60.1429
0.081071	60.6541
0.084094	61.1634
0.084859	61.6694
0.086035	62.1736
0.085149	62.676
0.087528	63.2041
0.086564	63.7293
0.085286	64.2521
0.086498	64.7735
0.084382	65.2916
0.086222	65.8082
0.085912	66.3222
0.085889	66.8349
0.086741	67.3451
0.086568	67.853
0.087268	68.3592
0.08893	68.8638
0.091546	69.3659
0.089348	69.8665
0.089408	70.3914
0.088738	70.9139
0.087762	71.4354
0.08908	71.9541
0.089143	72.4711
0.090229	72.9868
0.090552	73.4998
0.091737	74.0114
0.091126	74.5219
0.092032	75.0299
0.092059	75.5363
0.092683	76.0417
0.093674	76.545
0.090939	77.0466
0.092698	77.5474
0.092579	78.0714
0.095859	78.5935
0.099038	79.1139
0.096878	79.6332
0.0959	80.1506
0.097552	80.6668
0.09844	81.1816
0.100758	81.6945
0.099586	82.2061
0.099747	82.7162
0.10294	83.2254
0.099458	83.7335
0.0996	84.2388
0.101712	84.7436
0.101517	85.2475
0.099193	85.7487
0.099415	86.2494
0.100305	86.772
0.101975	87.2933
0.101785	87.8122
0.101525	88.3307
0.102886	88.8473
0.100225	89.3627
0.10275	89.8766
0.102523	90.3881
0.103208	90.8998
0.100547	91.4089
0.105832	91.9167
0.105494	92.4233
0.106303	92.929
0.104792	93.4332
0.105671	93.9353
0.106751	94.4362
0.107474	94.9368
0.107657	95.4583
0.108081	95.9782
0.107359	96.4984
0.109267	97.0165
0.108343	97.5343
0.108735	98.051
0.109081	98.5665
0.106836	99.0812
0.108529	99.5958
0.107151	100.247
0.110574	100.758
0.106669	101.268
0.111624	101.776
0.108612	102.283
0.110506	102.789
0.11022	103.293
0.110174	103.797
0.109251	104.299
0.109195	104.799
0.110308	105.299
0.110988	105.82
0.1104	106.339
0.109405	106.857
0.111277	107.374
0.112295	107.888
0.116332	108.403
0.114857	108.916
0.117093	109.427
0.119011	109.938
0.118828	110.447
0.118096	110.955
0.119618	111.462
0.118724	111.967
0.122672	112.471
0.121155	112.974
0.121041	113.476
0.121746	113.977
0.124559	114.497
0.123804	115.016
0.123553	115.533
0.120828	116.049
0.121787	116.565
0.12635	117.078
0.126078	117.591
0.127777	118.108
0.128598	118.612
0.128826	119.121
0.125801	119.628
0.125102	120.135
0.124502	120.64
0.126084	121.144
0.126211	121.646
0.123607	122.147
0.124478	122.648
0.125932	123.166
0.123126	123.684
0.123593	124.2
0.126338	124.715
0.123601	125.229
0.124402	125.74
0.123291	126.252
0.123315	126.762
0.124437	127.271
0.125079	127.779
0.125287	128.285
0.123066	128.789
0.126253	129.293
0.125569	129.795
0.124768	130.296
0.122638	130.796
0.122573	131.314
0.117487	131.83
0.118275	132.346
0.11781	132.859
0.117662	133.372
0.116071	133.884
0.114368	134.393
0.113811	134.902
0.114555	135.411
0.114613	135.915
0.114472	136.421
0.112687	136.924
0.11349	137.425
0.113161	137.926
0.113654	138.444
0.118846	138.96
0.118498	139.474
0.117678	139.988
0.11692	140.5
0.117946	141.011
0.117071	141.52
0.119456	142.027
0.120103	142.534
0.12123	143.038
0.120666	143.542
0.117676	144.043
0.119008	144.544
0.120214	145.061
0.120094	145.576
0.121593	146.09
0.121449	146.602
0.118188	147.113
0.118603	147.621
0.11714	148.129
0.118224	148.635
0.118998	149.14
0.116315	149.643
0.116255	150.145
0.117077	150.645
0.115659	151.16
0.115192	151.674
0.116595	152.192
0.116457	152.698
0.117231	153.208
0.116721	153.715
0.116117	154.221
0.115858	154.726
0.114961	155.229
0.114903	155.73
0.115928	156.23
0.115345	156.745
0.11425	157.258
0.115686	157.769
0.114825	158.279
0.115699	158.787
0.115822	159.293
0.116076	159.799
0.116963	160.302
0.115535	160.803
0.114231	161.303
0.114561	161.817
0.113458	162.329
0.112935	162.841
0.112044	163.35
0.111841	163.857
0.109777	164.362
0.109829	164.866
0.110068	165.368
0.110272	165.869
0.110628	166.383
0.112996	166.895
0.114916	167.406
0.115546	167.915
0.116522	168.422
0.11559	168.927
0.116377	169.431
0.119548	169.932
0.120398	170.447
0.121125	170.96
0.122673	171.47
0.121375	171.98
0.122309	172.487
0.122111	172.992
0.123464	173.496
0.122288	173.998
0.122386	174.512
0.120273	175.024
0.121933	175.535
0.121368	176.044
0.120364	176.55
0.120519	177.055
0.120874	177.558
0.122857	178.059
0.121411	178.572
0.122048	179.083
0.12143	179.592
0.121854	180.099
0.122156	180.604
0.121692	181.107
0.122121	181.608
0.121408	182.121
0.122184	182.631
0.123536	183.14
0.122956	183.646
0.122346	184.151
0.121233	184.653
0.120736	185.153
0.121519	185.665
0.12127	186.174
0.121227	186.681
0.122152	187.187
0.120953	187.69
0.119753	188.191
0.121347	188.703
0.120528	189.212
0.122573	189.722
0.124887	190.225
0.124523	190.727
0.123801	191.228
0.125323	191.74
0.126971	192.249
0.12907	192.755
0.127138	193.26
0.128803	193.762
0.127297	194.274
0.129878	194.784
0.130727	195.291
0.129487	195.796
0.13188	196.299
0.13276	196.799
0.13331	197.31
0.13342	197.818
0.134385	198.323
0.134824	198.826
0.136582	199.327
0.136299	199.837
0.139254	200.344
0.137133	200.849
0.137314	201.351
0.135923	201.863
0.136474	202.372
0.137567	202.878
0.138203	203.381
0.137915	203.883
0.137934	204.393
0.137414	204.9
0.1357	205.405
0.134701	205.907
0.136338	206.418
0.134373	206.925
0.132489	207.43
0.132637	207.933
0.130161	208.443
0.130602	208.951
0.130982	209.456
0.131628	209.958
0.132589	210.468
0.130315	210.975
0.130352	211.479
0.129632	211.981
0.127926	212.489
0.128199	212.996
0.127765	213.498
0.12808	213.999
0.127111	214.506
0.126698	215.01
0.124275	215.511
0.124879	216.02
0.124796	216.525
0.123857	217.027
0.123262	217.536
0.123634	218.042
0.12388	218.544
0.122456	219.053
0.12185	219.559
0.121722	220.062
0.121334	220.57
0.122063	221.076
0.123226	221.578
0.121564	222.086
0.119827	222.591
0.118878	223.092
0.118371	223.6
0.118383	224.104
0.118993	224.604
0.117368	225.11
0.117573	225.612
0.118168	226.12
0.118289	226.623
0.114131	227.124
0.114557	227.629
0.114391	228.131
0.116111	228.638
0.115315	229.141
0.114455	229.649
0.115558	230.153
0.115009	230.661
0.114085	231.165
0.113188	231.666
0.113181	232.171
0.112935	232.671
0.113192	233.176
0.1122	233.677
0.11267	234.182
0.113264	234.682
0.114243	235.187
0.115139	235.687
0.113725	236.191
0.115682	236.697
0.11525	237.2
0.115957	237.706
0.11802	238.208
0.117569	238.712
0.117405	239.212
0.119019	239.715
0.120627	240.221
0.119829	240.722
0.122485	241.225
0.124408	241.731
0.124	242.232
0.123688	242.735
0.124188	243.239
0.124887	243.74
0.125012	244.242
0.12435	244.746
0.124434	245.251
0.125066	245.752
0.125767	246.253
0.125681	246.756
0.125846	247.26
0.126562	247.765
0.127236	248.27
0.127284	248.771
0.126281	249.272
0.126993	249.773
0.127514	250.275
0.127386	250.777
0.126826	251.278
0.126883	251.78
0.127225	252.282
0.127634	252.784
0.127729	253.285
0.126898	253.786
0.127168	254.286
0.126603	254.79
0.126591	255.294
0.125113	255.796
0.126005	256.296
0.125186	256.801
0.123967	257.304
0.125474	257.805
0.124524	258.309
0.12383	258.811
0.124604	259.315
0.123716	259.817
0.122945	260.321
0.123298	260.823
0.12285	261.325
0.12241	261.829
0.122057	262.33
0.121576	262.832
0.121477	263.334
0.12166	263.837
0.121408	264.339
0.121828	264.842
0.121728	265.344
0.122257	265.846
0.122336	266.347
0.122832	266.847
0.123527	267.35
0.123136	267.851
0.123734	268.354
